* Sea-Bird SBE19Plus V2+ Data File:
* FileName = c:\velocity\CATFILES\\2016_223_005846.HEX
* Software Version 15.13(r5684)
* Temperature SN = 6122
* Conductivity SN = 6122
* System UpLoad Time = Aug 09 2016 17:12:31
* DS
* SBE 19plus V 2.5.2  SERIAL NO. 6122    10 Aug 2016 01:12:39
* vbatt = 12.5, vlith =  8.0, ioper =  62.4 ma, ipump =  41.1 ma,
* iext01 =   0.4 ma, iext2345 =   0.9 ma
* status = not logging
* number of scans to average = 1
* samples = 2764, free = 2858024, casts = 1
* mode = profile, minimum cond freq = 3023, pump delay = 60 sec
* autorun = no, ignore magnetic switch = no
* battery type = alkaline, battery cutoff =  7.5 volts
* pressure sensor = strain gauge, range = 870.0
* SBE 38 = no, WETLABS = no, OPTODE = no, SBE63 = no, Gas Tension Device = no
* Ext Volt 0 = yes, Ext Volt 1 = yes
* Ext Volt 2 = yes, Ext Volt 3 = yes
* Ext Volt 4 = yes, Ext Volt 5 = yes
* echo characters = yes
* output format = raw HEX
* S>* DCal
* SBE 19plus V 2.5.2  SERIAL NO. 6122    10 Aug 2016 01:14:17
* temperature:  20-Jan-16
*     TA0 = 1.300639e-03
*     TA1 = 2.550763e-04
*     TA2 = 3.093679e-07
*     TA3 = 1.244789e-07
*     TOFFSET = 0.000000e+00
* conductivity:  20-Jan-16
*     G = -9.961959e-01
*     H = 1.575116e-01
*     I = -5.951966e-04
*     J = 7.104324e-05
*     CPCOR = -9.570000e-08
*     CTCOR = 3.250000e-06
*     CSLOPE = 1.000000e+00
* pressure S/N = 2752080, range = 870 psia:  18-Jan-16
*     PA0 = -1.742711e-01
*     PA1 = 2.636137e-03
*     PA2 = 2.064739e-11
*     PTCA0 = 5.243847e+05
*     PTCA1 = -2.217547e+00
*     PTCA2 = -4.412591e-02
*     PTCB0 = 2.507825e+01
*     PTCB1 = -5.500000e-04
*     PTCB2 = 0.000000e+00
*     PTEMPA0 = -6.244149e+01
*     PTEMPA1 = 5.492555e+01
*     PTEMPA2 = -6.453163e-01
*     POFFSET = 0.000000e+00
* volt 0: offset = -5.001895e-02, slope = 1.247694e+00
* volt 1: offset = -4.973263e-02, slope = 1.249744e+00
* volt 2: offset = -4.923158e-02, slope = 1.248809e+00
* volt 3: offset = -5.038421e-02, slope = 1.247580e+00
* volt 4: offset = -4.960526e-02, slope = 1.248302e+00
* volt 5: offset = -4.888000e-02, slope = 1.246972e+00
*     EXTFREQSF = 9.999943e-01
* S>* cast   1 10 Aug 2016 00:58:46 samples 1 to 2764, avg = 1, stop = mag switch
# nquan = 5                                 
# nvalues = 1589                        
# units = specified
# name 0 = prdM: Pressure, Strain Gauge [db]
# name 1 = tv290C: Temperature [ITS-90, deg C]
# name 2 = c0S/m: Conductivity [S/m]
# name 3 = sal00: Salinity, Practical [PSU]
# name 4 = flag: flag
# span 0 =      0.001,    174.053       
# span 1 =     6.0468,    13.3014       
# span 2 =  -0.005462,   3.672212       
# span 3 =     0.0000,    32.8214       
# span 4 = 0.0000e+00, 0.0000e+00       
# interval = seconds: 0.25
# start_time = Aug 09 2016 17:12:31 [System UpLoad Time]
# bad_flag = -9.990e-29
# <Sensors count="9" >
#   <sensor Channel="1" >
#     <!-- Count, Temperature -->
#     <TemperatureSensor SensorID="58" >
#       <SerialNumber>6122</SerialNumber>
#       <CalibrationDate>20-Jan-16</CalibrationDate>
#       <A0>1.30063899e-003</A0>
#       <A1>2.55076327e-004</A1>
#       <A2>3.09367852e-007</A2>
#       <A3>1.24478898e-007</A3>
#       <Slope>1.00000000</Slope>
#       <Offset>0.0000</Offset>
#     </TemperatureSensor>
#   </sensor>
#   <sensor Channel="2" >
#     <!-- Frequency 0, Conductivity -->
#     <ConductivitySensor SensorID="3" >
#       <SerialNumber>6122</SerialNumber>
#       <CalibrationDate>20-Jan-16</CalibrationDate>
#       <UseG_J>1</UseG_J>
#       <!-- Cell const and series R are applicable only for wide range sensors. -->
#       <SeriesR>0.0000</SeriesR>
#       <CellConst>2000.0000</CellConst>
#       <ConductivityType>0</ConductivityType>
#       <Coefficients equation="0" >
#         <A>0.00000000e+000</A>
#         <B>0.00000000e+000</B>
#         <C>0.00000000e+000</C>
#         <D>0.00000000e+000</D>
#         <M>0.0</M>
#         <CPcor>-9.57000000e-008</CPcor>
#       </Coefficients>
#       <Coefficients equation="1" >
#         <G>-9.96195945e-001</G>
#         <H>1.57511597e-001</H>
#         <I>-5.95196631e-004</I>
#         <J>7.10432440e-005</J>
#         <CPcor>-9.57000000e-008</CPcor>
#         <CTcor>3.2500e-006</CTcor>
#         <!-- WBOTC not applicable unless ConductivityType = 1. -->
#         <WBOTC>0.00000000e+000</WBOTC>
#       </Coefficients>
#       <Slope>1.00000000</Slope>
#       <Offset>0.00000</Offset>
#     </ConductivitySensor>
#   </sensor>
#   <sensor Channel="3" >
#     <!-- Count, Pressure, Strain Gauge -->
#     <PressureSensor SensorID="46" >
#       <SerialNumber>6122</SerialNumber>
#       <CalibrationDate>18-Jan-16</CalibrationDate>
#       <PA0>-1.74271148e-001</PA0>
#       <PA1>2.63613713e-003</PA1>
#       <PA2>2.06473926e-011</PA2>
#       <PTEMPA0>-6.24414938e+001</PTEMPA0>
#       <PTEMPA1>5.49255526e+001</PTEMPA1>
#       <PTEMPA2>-6.45316310e-001</PTEMPA2>
#       <PTCA0>5.24384558e+005</PTCA0>
#       <PTCA1>-2.21754743e+000</PTCA1>
#       <PTCA2>-4.41259050e-002</PTCA2>
#       <PTCB0>2.50782500e+001</PTCB0>
#       <PTCB1>-5.50000000e-004</PTCB1>
#       <PTCB2>0.00000000e+000</PTCB2>
#       <Offset>0.000000</Offset>
#     </PressureSensor>
#   </sensor>
#   <sensor Channel="4" >
#     <!-- A/D voltage 0, Free -->
#   </sensor>
#   <sensor Channel="5" >
#     <!-- A/D voltage 1, Free -->
#   </sensor>
#   <sensor Channel="6" >
#     <!-- A/D voltage 2, Free -->
#   </sensor>
#   <sensor Channel="7" >
#     <!-- A/D voltage 3, Free -->
#   </sensor>
#   <sensor Channel="8" >
#     <!-- A/D voltage 4, Free -->
#   </sensor>
#   <sensor Channel="9" >
#     <!-- A/D voltage 5, Free -->
#   </sensor>
# </Sensors>
# datcnv_date = Jan 05 2017 09:51:29, 7.26.6.28 [datcnv_vars = 3]
# datcnv_in = G:\Habitat\RESEARCH PROJECTS\FISHPAC (2016)\Data\Seacat CTD\CAT_Files\S220\2016-222\2016_223_005846.HEX G:\Habitat\RESEARCH PROJECTS\FISHPAC (2016)\Data\Seacat CTD\CAT_Files\S220\Test Config\SBE19plusV2_6122.xmlcon
# datcnv_skipover = 0
# alignctd_date = Jan 05 2017 10:10:01, 7.26.6.28
# alignctd_in = G:\Habitat\RESEARCH PROJECTS\FISHPAC (2016)\Data\Seacat CTD\CAT_Files\S220\2016-222\Reprocessed\2016_223_005846Reprocessed.cnv
# alignctd_adv = tv290C 0.500                                                                                                                                                                                                        
# alignctd_date = Jan 05 2017 10:20:13, 7.26.6.28
# alignctd_in = G:\Habitat\RESEARCH PROJECTS\FISHPAC (2016)\Data\Seacat CTD\CAT_Files\S220\2016-222\Reprocessed\2016_223_005846Reprocessed.cnv
# alignctd_adv = tv290C 0.100                                                                                                                                                                                                        
# alignctd_date = Jan 05 2017 10:22:43, 7.26.6.28
# alignctd_in = G:\Habitat\RESEARCH PROJECTS\FISHPAC (2016)\Data\Seacat CTD\CAT_Files\S220\2016-222\Reprocessed\2016_223_005846Reprocessed.cnv
# alignctd_adv = tv290C -0.500                                                                                                                                                                                                       
# alignctd_date = Jan 05 2017 10:36:28, 7.26.6.28
# alignctd_in = G:\Habitat\RESEARCH PROJECTS\FISHPAC (2016)\Data\Seacat CTD\CAT_Files\S220\2016-222\Reprocessed\2016_223_005846Reprocessed.cnv
# alignctd_adv = tv290C 0.500                                                                                                                                                                                                        
# alignctd_date = Jan 05 2017 11:52:13, 7.26.6.28
# alignctd_in = G:\Habitat\RESEARCH PROJECTS\FISHPAC (2016)\Data\Seacat CTD\CAT_Files\S220\2016-222\Reprocessed\2016_223_005846Reprocessed.cnv
# alignctd_adv = tv290C 0.500, c0S/m 0.300                                                                                                                                                                                           
# alignctd_date = Jan 05 2017 11:54:12, 7.26.6.28
# alignctd_in = G:\Habitat\RESEARCH PROJECTS\FISHPAC (2016)\Data\Seacat CTD\CAT_Files\S220\2016-222\Reprocessed\2016_223_005846Reprocessed.cnv
# alignctd_adv = tv290C 1.000                                                                                                                                                                                                        
# alignctd_date = Jan 05 2017 11:55:33, 7.26.6.28
# alignctd_in = G:\Habitat\RESEARCH PROJECTS\FISHPAC (2016)\Data\Seacat CTD\CAT_Files\S220\2016-222\Reprocessed\2016_223_005846Reprocessed.cnv
# alignctd_adv = tv290C 0.500                                                                                                                                                                                                        
# alignctd_date = Jan 05 2017 11:57:14, 7.26.6.28
# alignctd_in = G:\Habitat\RESEARCH PROJECTS\FISHPAC (2016)\Data\Seacat CTD\CAT_Files\S220\2016-222\Reprocessed\2016_223_005846Reprocessed.cnv
# alignctd_adv = tv290C 0.500, c0S/m 0.500                                                                                                                                                                                           
# alignctd_date = Jan 05 2017 11:58:03, 7.26.6.28
# alignctd_in = G:\Habitat\RESEARCH PROJECTS\FISHPAC (2016)\Data\Seacat CTD\CAT_Files\S220\2016-222\Reprocessed\2016_223_005846Reprocessed.cnv
# alignctd_adv = tv290C 0.500                                                                                                                                                                                                        
# celltm_date = Jan 05 2017 12:20:51, 7.26.6.28
# celltm_in = G:\Habitat\RESEARCH PROJECTS\FISHPAC (2016)\Data\Seacat CTD\CAT_Files\S220\2016-222\Reprocessed\2016_223_005846Reprocessed.cnv
# celltm_alpha = 0.0400, 0.0000
# celltm_tau = 8.0000, 0.0000
# celltm_temp_sensor_use_for_cond = primary, 
# Derive_date = Jan 05 2017 12:34:58, 7.26.6.28 [derive_vars = 1]
# Derive_in = G:\Habitat\RESEARCH PROJECTS\FISHPAC (2016)\Data\Seacat CTD\CAT_Files\S220\2016-222\Reprocessed\2016_223_005846Reprocessed.cnv G:\Habitat\RESEARCH PROJECTS\FISHPAC (2016)\Data\Seacat CTD\CAT_Files\S220\Test Config\SBE19plusV2_6122.xmlcon
# file_type = ascii
*END*
      0.008    13.1383   0.000101     0.0069 0.0000e+00
      0.008    13.1302   0.000060     0.0068 0.0000e+00
      0.010    13.1241   0.000042     0.0068 0.0000e+00
      0.006    13.1199   0.000018     0.0068 0.0000e+00
      0.008    13.1177   0.000021     0.0068 0.0000e+00
      0.008    13.1187   0.000021     0.0068 0.0000e+00
      0.004    13.1243   0.000041     0.0068 0.0000e+00
      0.010    13.1326   0.000086     0.0068 0.0000e+00
      0.006    13.1418   0.000118     0.0069 0.0000e+00
      0.006    13.1501   0.000143     0.0070 0.0000e+00
      0.006    13.1543   0.000157     0.0070 0.0000e+00
      0.008    13.1533   0.000146     0.0070 0.0000e+00
      0.006    13.1502   0.000138     0.0070 0.0000e+00
      0.008    13.1471   0.000124     0.0069 0.0000e+00
      0.006    13.1467   0.000121     0.0069 0.0000e+00
      0.008    13.1490   0.000137     0.0070 0.0000e+00
      0.010    13.1544   0.000150     0.0070 0.0000e+00
      0.008    13.1622   0.000185     0.0071 0.0000e+00
      0.004    13.1673   0.000206     0.0072 0.0000e+00
      0.006    13.1652   0.000190     0.0072 0.0000e+00
      0.003    13.1602   0.000171     0.0071 0.0000e+00
      0.010    13.1581   0.000148     0.0070 0.0000e+00
      0.010    13.1591   0.000159     0.0071 0.0000e+00
      0.004    13.1640   0.000177     0.0071 0.0000e+00
      0.008    13.1741   0.000211     0.0072 0.0000e+00
      0.006    13.1852   0.000250     0.0074 0.0000e+00
      0.004    13.1948   0.000276     0.0075 0.0000e+00
      0.008    13.2020   0.000302     0.0076 0.0000e+00
      0.006    13.2078   0.000308     0.0076 0.0000e+00
      0.008    13.2125   0.000324     0.0077 0.0000e+00
      0.006    13.2125   0.000321     0.0077 0.0000e+00
      0.008    13.2102   0.000295     0.0076 0.0000e+00
      0.010    13.2095   0.000296     0.0076 0.0000e+00
      0.008    13.2124   0.000301     0.0076 0.0000e+00
      0.008    13.2170   0.000313     0.0076 0.0000e+00
      0.008    13.2220   0.000327     0.0077 0.0000e+00
      0.003    13.2261   0.000335     0.0077 0.0000e+00
      0.004    13.2311   0.000349     0.0078 0.0000e+00
      0.006    13.2358   0.000374     0.0079 0.0000e+00
      0.004    13.2406   0.000366     0.0079 0.0000e+00
      0.006    13.2455   0.000370     0.0079 0.0000e+00
      0.008    13.2485   0.000380     0.0079 0.0000e+00
      0.008    13.2519   0.000389     0.0080 0.0000e+00
      0.006    13.2562   0.000390     0.0080 0.0000e+00
      0.006    13.2598   0.000396     0.0080 0.0000e+00
      0.006    13.2631   0.000398     0.0080 0.0000e+00
      0.006    13.2660   0.000400     0.0080 0.0000e+00
      0.008    13.2688   0.000396     0.0080 0.0000e+00
      0.004    13.2706   0.000400     0.0080 0.0000e+00
      0.004    13.2707   0.000390     0.0080 0.0000e+00
      0.004    13.2699   0.000376     0.0079 0.0000e+00
      0.006    13.2704   0.000369     0.0079 0.0000e+00
      0.006    13.2723   0.000364     0.0079 0.0000e+00
      0.004    13.2752   0.000374     0.0079 0.0000e+00
      0.004    13.2784   0.000378     0.0079 0.0000e+00
      0.004    13.2822   0.000387     0.0080 0.0000e+00
      0.004    13.2849   0.000380     0.0079 0.0000e+00
      0.001    13.2863   0.000380     0.0079 0.0000e+00
      0.006    13.2889   0.000379     0.0079 0.0000e+00
      0.004    13.2912   0.000379     0.0079 0.0000e+00
      0.004    13.2929   0.000377     0.0079 0.0000e+00
      0.006    13.2943   0.000373     0.0079 0.0000e+00
      0.008    13.2949   0.000368     0.0079 0.0000e+00
      0.004    13.2953   0.000362     0.0079 0.0000e+00
      0.003    13.2956   0.000354     0.0078 0.0000e+00
      0.004    13.2967   0.000352     0.0078 0.0000e+00
      0.006    13.2991   0.000354     0.0078 0.0000e+00
      0.004    13.3012   0.000353     0.0078 0.0000e+00
      0.006    13.3014   0.000344     0.0078 0.0000e+00
      0.006    13.3000   0.000329     0.0077 0.0000e+00
      0.008    13.2999   0.000316     0.0077 0.0000e+00
      0.010    13.2919   0.000288     0.0076 0.0000e+00
      0.004    13.0914  -0.000477     0.0000 0.0000e+00
      0.006    12.5725  -0.002412     0.0000 0.0000e+00
      0.004    12.0762  -0.004196     0.0000 0.0000e+00
      0.008    11.8014  -0.005091     0.0000 0.0000e+00
      0.004    11.6710  -0.005420     0.0000 0.0000e+00
      0.004    11.6152  -0.005462     0.0000 0.0000e+00
      0.006    11.5980  -0.005348     0.0000 0.0000e+00
      0.006    11.6024  -0.005175     0.0000 0.0000e+00
      0.004    11.6193  -0.004945     0.0000 0.0000e+00
      0.008    11.6422  -0.004704     0.0000 0.0000e+00
      0.008    11.6597   0.694877     5.2500 0.0000e+00
      0.006    11.6631   3.512728    30.5647 0.0000e+00
      0.008    11.6527   3.599241    31.4106 0.0000e+00
      0.008    11.6349   3.624422    31.6701 0.0000e+00
      0.206    11.6160   3.638724    31.8251 0.0000e+00
      0.548    11.5981   3.647213    31.9230 0.0000e+00
      0.872    11.5844   3.651080    31.9723 0.0000e+00
      1.130    11.5792   3.651125    31.9771 0.0000e+00
      1.306    11.5779   3.647663    31.9444 0.0000e+00
      1.444    11.5748   3.646171    31.9325 0.0000e+00
      1.528    11.5765   3.622788    31.7035 0.0000e+00
      1.550    11.5946   3.649119    31.9441 0.0000e+00
      1.455    11.6244   3.658764    32.0123 0.0000e+00
      1.281    11.6461   3.637709    31.7890 0.0000e+00
      1.083    11.6591   3.607581    31.4856 0.0000e+00
      0.879    11.6609   3.643433    31.8321 0.0000e+00
      0.737    11.6458   3.641940    31.8306 0.0000e+00
      0.695    11.6216   3.653827    31.9670 0.0000e+00
      0.753    11.6015   3.657205    32.0172 0.0000e+00
      0.866    11.5900   3.659434    32.0488 0.0000e+00
      0.992    11.5851   3.661902    32.0770 0.0000e+00
      1.123    11.5857   3.661005    32.0677 0.0000e+00
      1.264    11.5946   3.660989    32.0598 0.0000e+00
      1.401    11.6062   3.662373    32.0632 0.0000e+00
      1.506    11.6126   3.664833    32.0815 0.0000e+00
      1.575    11.6098   3.666074    32.0960 0.0000e+00
      1.612    11.6021   3.661758    32.0607 0.0000e+00
      1.619    11.5962   3.655405    32.0039 0.0000e+00
      1.608    11.5917   3.654154    31.9956 0.0000e+00
      1.597    11.5887   3.656469    32.0207 0.0000e+00
      1.612    11.5887   3.663016    32.0845 0.0000e+00
      1.652    11.5890   3.665101    32.1045 0.0000e+00
      1.706    11.5873   3.666627    32.1209 0.0000e+00
      1.748    11.5865   3.667342    32.1285 0.0000e+00
      1.770    11.5929   3.665796    32.1079 0.0000e+00
      1.783    11.6119   3.662973    32.0639 0.0000e+00
      1.779    11.6329   3.659699    32.0139 0.0000e+00
      1.763    11.6453   3.656513    31.9723 0.0000e+00
      1.746    11.6501   3.655217    31.9555 0.0000e+00
      1.746    11.6529   3.655129    31.9523 0.0000e+00
      1.781    11.6532   3.656756    31.9678 0.0000e+00
      1.844    11.6506   3.659135    31.9931 0.0000e+00
      1.946    11.6497   3.660422    32.0064 0.0000e+00
      2.043    11.6508   3.663949    32.0397 0.0000e+00
      2.141    11.6459   3.666565    32.0693 0.0000e+00
      2.241    11.6375   3.667694    32.0875 0.0000e+00
      2.333    11.6349   3.668561    32.0982 0.0000e+00
      2.397    11.6364   3.668510    32.0964 0.0000e+00
      2.432    11.6350   3.666730    32.0802 0.0000e+00
      2.457    11.6263   3.666692    32.0874 0.0000e+00
      2.474    11.6127   3.669206    32.1236 0.0000e+00
      2.492    11.6002   3.670671    32.1487 0.0000e+00
      2.504    11.5912   3.671150    32.1612 0.0000e+00
      2.499    11.5828   3.671241    32.1694 0.0000e+00
      2.488    11.5748   3.670222    32.1664 0.0000e+00
      2.474    11.5692   3.669248    32.1618 0.0000e+00
      2.443    11.5655   3.670206    32.1743 0.0000e+00
      2.403    11.5624   3.671674    32.1914 0.0000e+00
      2.343    11.5594   3.672212    32.1992 0.0000e+00
      2.266    11.5572   3.669389    32.1737 0.0000e+00
      2.194    11.5565   3.664818    32.1297 0.0000e+00
      2.106    11.5600   3.659574    32.0756 0.0000e+00
      2.024    11.5722   3.655620    32.0266 0.0000e+00
      1.955    11.5889   3.653651    31.9930 0.0000e+00
      1.917    11.5998   3.652917    31.9765 0.0000e+00
      1.917    11.6029   3.651848    31.9634 0.0000e+00
      1.955    11.5980   3.651762    31.9667 0.0000e+00
      2.033    11.5890   3.651616    31.9731 0.0000e+00
      2.172    11.5797   3.651779    31.9826 0.0000e+00
      2.326    11.5713   3.651888    31.9909 0.0000e+00
      2.503    11.5652   3.653213    32.0090 0.0000e+00
      2.646    11.5608   3.656398    32.0437 0.0000e+00
      2.735    11.5580   3.656594    32.0480 0.0000e+00
      2.775    11.5573   3.656540    32.0481 0.0000e+00
      2.759    11.5584   3.657157    32.0532 0.0000e+00
      2.699    11.5619   3.657371    32.0523 0.0000e+00
      2.588    11.5740   3.656325    32.0316 0.0000e+00
      2.433    11.5932   3.654202    31.9944 0.0000e+00
      2.253    11.6094   3.652759    31.9665 0.0000e+00
      2.093    11.6195   3.652163    31.9521 0.0000e+00
      1.997    11.6218   3.651771    31.9463 0.0000e+00
      1.970    11.6161   3.651624    31.9498 0.0000e+00
      1.997    11.6046   3.651717    31.9606 0.0000e+00
      2.061    11.5929   3.652352    31.9768 0.0000e+00
      2.148    11.5832   3.654345    32.0046 0.0000e+00
      2.235    11.5764   3.657546    32.0416 0.0000e+00
      2.315    11.5738   3.658069    32.0489 0.0000e+00
      2.368    11.5762   3.658461    32.0506 0.0000e+00
